Wavelength (nm),Absorbance
200.0,0.915
201.0,0.913
202.0,0.944
203.0,0.925
204.0,0.932
205.0,0.956
206.0,0.940
207.0,0.973
208.0,0.970
209.0,0.986
210.0,0.981
211.0,1.009
212.0,1.024
213.0,1.030
214.0,1.039
215.0,1.050
216.0,1.053
217.0,1.065
218.0,1.090
219.0,1.102
220.0,1.120
221.0,1.133
222.0,1.201
223.0,1.323
224.0,1.603
225.0,2.009
226.0,2.428
227.0,2.808
228.0,3.126
229.0,3.389
230.0,3.616
231.0,3.823
232.0,4.010
233.0,4.134
234.0,4.253
235.0,4.368
236.0,4.434
237.0,4.481
238.0,4.590
239.0,4.608
240.0,4.697
241.0,4.709
242.0,4.738
243.0,4.744
244.0,4.787
245.0,4.805
246.0,4.843
247.0,4.808
248.0,4.799
249.0,4.856
250.0,4.789
251.0,4.818
252.0,4.823
253.0,4.835
254.0,4.821
255.0,4.822
256.0,4.836
257.0,4.797
258.0,4.806
259.0,4.750
260.0,4.741
261.0,4.766
262.0,4.716
263.0,4.740
264.0,4.691
265.0,4.631
266.0,4.630
267.0,4.608
268.0,4.549
269.0,4.504
270.0,4.457
271.0,4.401
272.0,4.377
273.0,4.340
274.0,4.301
275.0,4.260
276.0,4.236
277.0,4.185
278.0,4.134
279.0,4.101
280.0,4.059
281.0,4.019
282.0,3.985
283.0,3.941
284.0,3.911
285.0,3.866
286.0,3.831
287.0,3.795
288.0,3.750
289.0,3.711
290.0,3.677
291.0,3.634
292.0,3.602
293.0,3.580
294.0,3.537
295.0,3.500
296.0,3.466
297.0,3.436
298.0,3.398
299.0,3.371
300.0,3.335
301.0,3.303
302.0,3.273
303.0,3.243
304.0,3.213
305.0,3.180
306.0,3.161
307.0,3.131
308.0,3.100
309.0,3.067
310.0,3.032
311.0,3.002
312.0,2.972
313.0,2.938
314.0,2.904
315.0,2.874
316.0,2.839
317.0,2.805
318.0,2.775
319.0,2.743
320.0,2.709
321.0,2.679
322.0,2.646
323.0,2.618
324.0,2.587
325.0,2.558
326.0,2.528
327.0,2.496
328.0,2.469
329.0,2.444
330.0,2.416
331.0,2.391
332.0,2.361
333.0,2.336
334.0,2.309
335.0,2.282
336.0,2.256
337.0,2.229
338.0,2.203
339.0,2.177
340.0,2.153
341.0,2.128
342.0,2.102
343.0,2.078
344.0,2.054
345.0,2.029
346.0,2.004
347.0,1.982
348.0,1.957
349.0,1.932
350.0,1.910
351.0,1.886
352.0,1.862
353.0,1.837
354.0,1.812
355.0,1.787
356.0,1.762
357.0,1.736
358.0,1.710
359.0,1.684
360.0,1.657
361.0,1.631
362.0,1.604
363.0,1.576
364.0,1.549
365.0,1.521
366.0,1.494
367.0,1.466
368.0,1.438
369.0,1.410
370.0,1.383
371.0,1.356
372.0,1.329
373.0,1.299
374.0,1.274
375.0,1.248
376.0,1.223
377.0,1.199
378.0,1.175
379.0,1.149
380.0,1.125
381.0,1.102
382.0,1.078
383.0,1.056
384.0,1.034
385.0,1.013
386.0,0.993
387.0,0.972
388.0,0.952
389.0,0.934
390.0,0.916
391.0,0.898
392.0,0.882
393.0,0.866
394.0,0.850
395.0,0.835
396.0,0.821
397.0,0.807
398.0,0.793
399.0,0.780
400.0,0.767
401.0,0.755
402.0,0.742
403.0,0.730
404.0,0.718
405.0,0.707
406.0,0.697
407.0,0.685
408.0,0.675
409.0,0.664
410.0,0.654
411.0,0.644
412.0,0.634
413.0,0.625
414.0,0.616
415.0,0.606
416.0,0.597
417.0,0.589
418.0,0.580
419.0,0.571
420.0,0.563
421.0,0.555
422.0,0.547
423.0,0.539
424.0,0.531
425.0,0.523
426.0,0.515
427.0,0.508
428.0,0.500
429.0,0.493
430.0,0.485
431.0,0.478
432.0,0.472
433.0,0.465
434.0,0.458
435.0,0.452
436.0,0.446
437.0,0.440
438.0,0.435
439.0,0.429
440.0,0.424
441.0,0.419
442.0,0.415
443.0,0.410
444.0,0.406
445.0,0.402
446.0,0.398
447.0,0.394
448.0,0.391
449.0,0.387
450.0,0.383
451.0,0.380
452.0,0.377
453.0,0.374
454.0,0.371
455.0,0.368
456.0,0.365
457.0,0.362
458.0,0.359
459.0,0.356
460.0,0.353
461.0,0.350
462.0,0.347
463.0,0.344
464.0,0.341
465.0,0.338
466.0,0.335
467.0,0.332
468.0,0.329
469.0,0.326
470.0,0.323
471.0,0.319
472.0,0.316
473.0,0.313
474.0,0.309
475.0,0.306
476.0,0.303
477.0,0.299
478.0,0.296
479.0,0.292
480.0,0.288
481.0,0.285
482.0,0.281
483.0,0.278
484.0,0.274
485.0,0.271
486.0,0.267
487.0,0.264
488.0,0.261
489.0,0.257
490.0,0.254
491.0,0.250
492.0,0.247
493.0,0.244
494.0,0.241
495.0,0.238
496.0,0.235
497.0,0.232
498.0,0.229
499.0,0.226
500.0,0.223
501.0,0.220
502.0,0.218
503.0,0.215
504.0,0.212
505.0,0.209
506.0,0.207
507.0,0.204
508.0,0.202
509.0,0.199
510.0,0.197
511.0,0.195
512.0,0.192
513.0,0.190
514.0,0.188
515.0,0.186
516.0,0.184
517.0,0.182
518.0,0.180
519.0,0.177
520.0,0.175
521.0,0.173
522.0,0.171
523.0,0.169
524.0,0.167
525.0,0.165
526.0,0.163
527.0,0.161
528.0,0.159
529.0,0.157
530.0,0.155
531.0,0.154
532.0,0.152
533.0,0.150
534.0,0.148
535.0,0.147
536.0,0.145
537.0,0.143
538.0,0.141
539.0,0.140
540.0,0.138
541.0,0.137
542.0,0.135
543.0,0.133
544.0,0.132
545.0,0.130
546.0,0.129
547.0,0.127
548.0,0.126
549.0,0.124
550.0,0.123
551.0,0.121
552.0,0.120
553.0,0.119
554.0,0.117
555.0,0.116
556.0,0.115
557.0,0.114
558.0,0.112
559.0,0.111
560.0,0.110
561.0,0.109
562.0,0.108
563.0,0.107
564.0,0.106
565.0,0.104
566.0,0.103
567.0,0.102
568.0,0.101
569.0,0.100
570.0,0.099
571.0,0.098
572.0,0.097
573.0,0.095
574.0,0.095
575.0,0.094
576.0,0.093
577.0,0.092
578.0,0.091
579.0,0.090
580.0,0.089
581.0,0.088
582.0,0.087
583.0,0.086
584.0,0.085
585.0,0.085
586.0,0.084
587.0,0.083
588.0,0.082
589.0,0.081
590.0,0.080
591.0,0.080
592.0,0.079
593.0,0.078
594.0,0.077
595.0,0.076
596.0,0.075
597.0,0.075
598.0,0.074
599.0,0.073
600.0,0.072
601.0,0.072
602.0,0.071
603.0,0.070
604.0,0.070
605.0,0.069
606.0,0.068
607.0,0.068
608.0,0.067
609.0,0.066
610.0,0.066
611.0,0.065
612.0,0.064
613.0,0.064
614.0,0.063
615.0,0.062
616.0,0.062
617.0,0.061
618.0,0.061
619.0,0.060
620.0,0.059
621.0,0.059
622.0,0.058
623.0,0.058
624.0,0.057
625.0,0.057
626.0,0.056
627.0,0.056
628.0,0.055
629.0,0.054
630.0,0.054
631.0,0.053
632.0,0.053
633.0,0.052
634.0,0.052
635.0,0.051
636.0,0.051
637.0,0.050
638.0,0.050
639.0,0.050
640.0,0.049
641.0,0.048
642.0,0.048
643.0,0.048
644.0,0.047
645.0,0.047
646.0,0.046
647.0,0.046
648.0,0.045
649.0,0.045
650.0,0.044
651.0,0.044
652.0,0.044
653.0,0.043
654.0,0.043
655.0,0.043
656.0,0.042
657.0,0.042
658.0,0.041
659.0,0.041
660.0,0.041
661.0,0.040
662.0,0.040
663.0,0.039
664.0,0.039
665.0,0.039
666.0,0.038
667.0,0.038
668.0,0.038
669.0,0.037
670.0,0.037
671.0,0.037
672.0,0.036
673.0,0.036
674.0,0.036
675.0,0.036
676.0,0.035
677.0,0.035
678.0,0.035
679.0,0.034
680.0,0.034
681.0,0.034
682.0,0.033
683.0,0.033
684.0,0.033
685.0,0.032
686.0,0.032
687.0,0.032
688.0,0.032
689.0,0.031
690.0,0.031
691.0,0.031
692.0,0.031
693.0,0.030
694.0,0.030
695.0,0.030
696.0,0.030
697.0,0.029
698.0,0.029
699.0,0.029
700.0,0.029
701.0,0.028
702.0,0.028
703.0,0.028
704.0,0.028
705.0,0.027
706.0,0.027
707.0,0.027
708.0,0.027
709.0,0.027
710.0,0.026
711.0,0.026
712.0,0.026
713.0,0.026
714.0,0.025
715.0,0.025
716.0,0.025
717.0,0.025
718.0,0.025
719.0,0.025
720.0,0.024
721.0,0.024
722.0,0.024
723.0,0.024
724.0,0.024
725.0,0.023
726.0,0.023
727.0,0.023
728.0,0.023
729.0,0.023
730.0,0.023
731.0,0.023
732.0,0.022
733.0,0.022
734.0,0.022
735.0,0.022
736.0,0.022
737.0,0.021
738.0,0.021
739.0,0.021
740.0,0.021
741.0,0.021
742.0,0.021
743.0,0.021
744.0,0.020
745.0,0.020
746.0,0.020
747.0,0.020
748.0,0.020
749.0,0.020
750.0,0.020
751.0,0.019
752.0,0.019
753.0,0.019
754.0,0.019
755.0,0.019
756.0,0.019
757.0,0.019
758.0,0.018
759.0,0.018
760.0,0.018
761.0,0.018
762.0,0.018
763.0,0.018
764.0,0.018
765.0,0.018
766.0,0.017
767.0,0.017
768.0,0.017
769.0,0.017
770.0,0.017
771.0,0.017
772.0,0.017
773.0,0.017
774.0,0.017
775.0,0.017
776.0,0.016
777.0,0.016
778.0,0.016
779.0,0.016
780.0,0.016
781.0,0.016
782.0,0.016
783.0,0.016
784.0,0.016
785.0,0.015
786.0,0.015
787.0,0.015
788.0,0.015
789.0,0.015
790.0,0.015
791.0,0.015
792.0,0.015
793.0,0.015
794.0,0.015
795.0,0.015
796.0,0.015
797.0,0.014
798.0,0.014
799.0,0.014
800.0,0.014
